WaveNumber	RAMAN	ROA
106.605	2.93417e+08	-101483  
109.821	2.67413e+08	-119567  
113.035	2.57594e+08	-130744  
116.248	2.48541e+08	-115008  
119.458	2.39666e+08	-99017.6  
122.667	2.31305e+08	-106041  
125.874	2.22867e+08	-125129  
129.079	2.14326e+08	-88009.2  
132.283	2.05844e+08	-108866  
135.485	1.97777e+08	-83873.8  
138.685	1.90132e+08	-90451  
141.883	1.8301e+08	-75214.4  
145.079	1.76453e+08	-56329.6  
148.274	1.70357e+08	-43186.8  
151.467	1.64916e+08	-43581.2  
154.658	1.5961e+08	-46846.6  
157.847	1.54741e+08	-46063.6  
161.035	1.50148e+08	-64490.2  
164.22	1.45918e+08	-57872.4  
167.404	1.42108e+08	-52333.4  
170.587	1.38594e+08	-54189.4  
173.767	1.35574e+08	-39701  
176.946	1.32918e+08	-37647.8  
180.123	1.30601e+08	-48140  
183.298	1.28546e+08	-27869  
186.472	1.26624e+08	-52640.8  
189.643	1.24861e+08	-48111  
192.813	1.23227e+08	-37195.4  
195.981	1.2174e+08	-38326.4  
199.148	1.20248e+08	-35681.6  
202.312	1.18867e+08	-19708.4  
205.475	1.17644e+08	-30397.8  
208.636	1.16535e+08	-22411.2  
211.795	1.15622e+08	-25085  
214.953	1.14926e+08	-47983.4  
218.109	1.14428e+08	-36041.2  
221.263	1.1407e+08	-45385  
224.415	1.1395e+08	-30183.2  
227.565	1.13848e+08	-36899.6  
230.714	1.13769e+08	-27503.6  
233.861	1.13694e+08	-36603.8  
237.006	1.13615e+08	-33657.4  
240.15	1.13558e+08	-35182.8  
243.292	1.13326e+08	-42722.8  
246.432	1.13083e+08	-41330.8  
249.57	1.12767e+08	-58464  
252.706	1.1251e+08	-42769.2  
255.841	1.12188e+08	-46452.2  
258.974	1.12017e+08	-39985.2  
262.105	1.11949e+08	-48841.8  
265.234	1.12054e+08	-52791.6  
268.362	1.12362e+08	-43830.6  
271.488	1.12821e+08	-61364  
274.612	1.13464e+08	-50982  
277.735	1.14051e+08	-74245.8  
280.855	1.14323e+08	-77737.4  
283.974	1.1359e+08	-73665.8  
287.091	1.12044e+08	-75469.6  
290.207	1.09756e+08	-63840.6  
293.321	1.07453e+08	-56944.4  
296.432	1.05672e+08	-44306.2  
299.543	1.04452e+08	-46939.4  
302.651	1.03716e+08	-31209.8  
305.758	1.03222e+08	-47409.2  
308.863	1.02851e+08	-19789.6  
311.966	1.0266e+08	-44816.6  
315.067	1.02663e+08	-23466.8  
318.167	1.02819e+08	-36975  
321.265	1.03183e+08	-18548.4  
324.361	1.03506e+08	-48795.4  
327.455	1.03637e+08	-31882.6  
330.548	1.03726e+08	-33268.8  
333.639	1.03922e+08	-44625.2  
336.728	1.04477e+08	-12719.4  
339.816	1.05145e+08	-25520  
342.902	1.05912e+08	-30989.4  
345.986	1.06558e+08	-25728.8  
349.068	1.072e+08	-32259.6  
352.148	1.07914e+08	-8439  
355.227	1.08575e+08	-22208.2  
358.304	1.09163e+08	-17684.2  
361.379	1.0973e+08	-31639  
364.453	1.10428e+08	-23217.4  
367.525	1.1127e+08	-23211.6  
370.595	1.1236e+08	-17730.6  
373.663	1.13631e+08	-36673.4  
376.73	1.15065e+08	-52263.8  
379.795	1.16551e+08	-33181.8  
382.858	1.17803e+08	-39985.2  
385.919	1.18454e+08	-42073.2  
388.979	1.18335e+08	-58777.2  
392.037	1.17672e+08	-49450.8  
395.093	1.16985e+08	-38761.4  
398.147	1.16651e+08	-29759.8  
401.2	1.16865e+08	-21454.2  
404.251	1.17427e+08	-19505.4  
407.3	1.18238e+08	-30003.4  
410.348	1.19231e+08	-38210.4  
413.394	1.20281e+08	-38082.8  
416.438	1.21306e+08	-36018  
419.48	1.22349e+08	-29945.4  
422.521	1.23339e+08	-59508  
425.559	1.24189e+08	-45025.4  
428.597	1.24827e+08	-48801.2  
431.632	1.25138e+08	-54247.4  
434.666	1.25199e+08	-44126.4  
437.698	1.25152e+08	-44375.8  
440.728	1.25298e+08	-44654.2  
443.756	1.25495e+08	-17208.6  
446.783	1.25934e+08	-11576.8  
449.808	1.2646e+08	-34475.2  
452.832	1.27088e+08	-41064  
455.853	1.27829e+08	-41638.2  
458.873	1.28689e+08	-52925  
461.891	1.29619e+08	-33263  
464.908	1.30509e+08	-36598  
467.922	1.31311e+08	-27938.6  
470.935	1.32016e+08	-50900.8  
473.947	1.32563e+08	-38819.4  
476.956	1.33141e+08	-47223.6  
479.964	1.33802e+08	-48662  
482.97	1.34577e+08	-45199.4  
485.974	1.35542e+08	-37874  
488.977	1.36623e+08	-42583.6  
491.978	1.37961e+08	-46202.8  
494.977	1.39321e+08	-45303.8  
497.975	1.40398e+08	-32323.4  
500.97	1.40415e+08	-50245.4  
503.965	1.39138e+08	-45738.8  
506.957	1.37166e+08	-28826  
509.947	1.35373e+08	-29092.8  
512.936	1.34262e+08	-11611.6  
515.924	1.33759e+08	-9900.6  
518.909	1.33687e+08	-3149.4  
521.893	1.33741e+08	4060  
524.875	1.33829e+08	5863.8  
527.855	1.33827e+08	3688.8  
530.834	1.33747e+08	3520.6  
533.811	1.33594e+08	-4889.4  
536.786	1.33428e+08	12348.2  
539.759	1.33277e+08	14413  
542.731	1.33123e+08	-4947.4  
545.701	1.33072e+08	23785.8  
548.67	1.33138e+08	15323.6  
551.636	1.33455e+08	8004  
554.601	1.33791e+08	40832  
557.565	1.34303e+08	27312.2  
560.526	1.34779e+08	23263.8  
563.486	1.34913e+08	29348  
566.444	1.34796e+08	26407.4  
569.4	1.34639e+08	30287.6  
572.355	1.34426e+08	29533.6  
575.308	1.34356e+08	7464.6  
578.259	1.34457e+08	32717.8  
581.209	1.34625e+08	21489  
584.157	1.35002e+08	26616.2  
587.103	1.35439e+08	36754.6  
590.047	1.36052e+08	31784  
592.99	1.36636e+08	25665  
595.931	1.37294e+08	53447  
598.871	1.38015e+08	27497.8  
601.808	1.38819e+08	32195.8  
604.744	1.3967e+08	22364.8  
607.678	1.40508e+08	19377.8  
610.611	1.4143e+08	2372.2  
613.542	1.42301e+08	19348.8  
616.471	1.43419e+08	21036.6  
619.398	1.4472e+08	3932.4  
622.324	1.46391e+08	14326  
625.248	1.48353e+08	38465.6  
628.171	1.50597e+08	14569.6  
631.091	1.5288e+08	9778.8  
634.01	1.54713e+08	9790.4  
636.927	1.55625e+08	3230.6  
639.843	1.55684e+08	-5086.6  
642.757	1.55425e+08	3027.6  
645.669	1.55634e+08	7389.2  
648.579	1.56716e+08	13815.6  
651.488	1.58469e+08	-10938.8  
654.395	1.60585e+08	-13566.2  
657.301	1.62461e+08	-29348  
660.204	1.63527e+08	-16883.8  
663.107	1.63623e+08	8317.2  
666.007	1.63078e+08	-12696.2  
668.905	1.62452e+08	-3857  
671.802	1.62143e+08	25212.6  
674.698	1.62373e+08	6327.8  
677.591	1.62821e+08	21709.4  
680.483	1.63155e+08	4674.8  
683.373	1.63141e+08	33953.2  
686.262	1.62658e+08	11397  
689.149	1.61871e+08	31064.8  
692.034	1.6121e+08	34608.6  
694.917	1.60912e+08	30107.8  
697.799	1.612e+08	22428.6  
700.679	1.61927e+08	24406.4  
703.557	1.63031e+08	35339.4  
706.434	1.64257e+08	15317.8  
709.309	1.65094e+08	27579  
712.182	1.65444e+08	30322.4  
715.054	1.65452e+08	45709.8  
717.924	1.65543e+08	27538.4  
720.792	1.659e+08	49613.2  
723.659	1.66637e+08	26100  
726.524	1.67606e+08	31876.8  
729.387	1.68793e+08	38013.2  
732.248	1.70221e+08	67123.4  
735.108	1.7176e+08	50715.2  
737.967	1.734e+08	39010.8  
740.823	1.75053e+08	57762.2  
743.678	1.76557e+08	20468.2  
746.531	1.781e+08	42711.2  
749.383	1.79706e+08	38923.8  
752.232	1.81195e+08	51480.8  
755.08	1.82776e+08	13160.2  
757.927	1.84514e+08	22962.2  
760.772	1.86779e+08	45025.4  
763.615	1.897e+08	-4466  
766.456	1.93335e+08	31917.4  
769.296	1.97128e+08	-9477.2  
772.134	2.00212e+08	-28866.6  
774.97	2.02147e+08	-10318.2  
777.805	2.03622e+08	-2662.2  
780.638	2.05915e+08	-19041.4  
783.469	2.09485e+08	3010.2  
786.299	2.14104e+08	-17771.2  
789.127	2.19014e+08	-24748.6  
791.954	2.23504e+08	-59774.8  
794.778	2.27356e+08	-36667.6  
797.601	2.30988e+08	-40617.4  
800.423	2.35107e+08	-38117.6  
803.242	2.40099e+08	-28019.8  
806.06	2.46396e+08	-63463.6  
808.877	2.53691e+08	-72732  
811.691	2.62037e+08	-74008  
814.504	2.70779e+08	-99122  
817.316	2.79457e+08	-147059  
820.125	2.86788e+08	-156687  
822.933	2.91592e+08	-158665  
825.74	2.9361e+08	-158189  
828.544	2.93732e+08	-153862  
831.347	2.93344e+08	-133406  
834.149	2.93315e+08	-131486  
836.948	2.93441e+08	-144095  
839.746	2.92889e+08	-124294  
842.543	2.91311e+08	-157070  
845.337	2.88857e+08	-124265  
848.13	2.86159e+08	-131428  
850.922	2.83603e+08	-111006  
853.712	2.81484e+08	-81948.2  
856.5	2.79968e+08	-68335.6  
859.286	2.79129e+08	-86855  
862.071	2.78567e+08	-51190.8  
864.854	2.78368e+08	-67622.2  
867.635	2.79049e+08	-63196.8  
870.415	2.81386e+08	-69101.2  
873.193	2.85703e+08	-70452.6  
875.969	2.91771e+08	-57872.4  
878.744	2.99148e+08	-105601  
881.517	3.07409e+08	-106575  
884.289	3.15726e+08	-105879  
887.059	3.23734e+08	-120907  
889.827	3.30831e+08	-123621  
892.593	3.3759e+08	-126469  
895.358	3.44673e+08	-111540  
898.121	3.52687e+08	-142471  
900.883	3.6027e+08	-94899.6  
903.643	3.65999e+08	-135569  
906.401	3.6771e+08	-134908  
909.158	3.65443e+08	-145400  
911.913	3.60043e+08	-121174  
914.666	3.5332e+08	-110490  
917.418	3.47535e+08	-121667  
920.168	3.44305e+08	-136834  
922.916	3.44014e+08	-117299  
925.663	3.46591e+08	-140841  
928.408	3.5149e+08	-158688  
931.151	3.58293e+08	-160057  
933.893	3.66827e+08	-213492  
936.633	3.76746e+08	-230057  
939.371	3.88182e+08	-262595  
942.108	4.01236e+08	-283603  
944.843	4.16823e+08	-289930  
947.577	4.35021e+08	-387173  
950.309	4.56251e+08	-482403  
953.039	4.81341e+08	-503382  
955.768	5.10986e+08	-624718  
958.495	5.46456e+08	-770037  
961.22	5.89263e+08	-941183  
963.944	6.42134e+08	-1.11384e+06  
966.666	7.06802e+08	-1.4115e+06  
969.386	7.87254e+08	-1.8036e+06  
972.105	8.85165e+08	-2.29122e+06  
974.822	9.98869e+08	-2.84497e+06  
977.537	1.1185e+09	-3.58659e+06  
980.251	1.22241e+09	-4.18248e+06  
982.963	1.27819e+09	-4.59911e+06  
985.674	1.25941e+09	-4.64214e+06  
988.383	1.16132e+09	-4.25336e+06  
991.09	1.00825e+09	-3.48162e+06  
993.796	8.42437e+08	-2.51255e+06  
996.5	6.99579e+08	-1.72474e+06  
999.202	5.9481e+08	-1.12406e+06  
1001.9	5.25256e+08	-789711  
1004.6	4.79931e+08	-592522  
1007.3	4.49884e+08	-404666  
1010	4.29351e+08	-288846  
1012.69	4.14922e+08	-233595  
1015.38	4.05199e+08	-209281  
1018.07	3.9934e+08	-166878  
1020.76	3.96224e+08	-120077  
1023.45	3.95275e+08	-110931  
1026.14	3.96068e+08	-79436.8  
1028.82	3.98413e+08	-102167  
1031.5	4.02262e+08	-80823  
1034.18	4.07468e+08	-61526.4  
1036.86	4.13648e+08	-74883.8  
1039.54	4.20829e+08	-71664.8  
1042.22	4.28981e+08	-78793  
1044.89	4.37981e+08	-69153.4  
1047.57	4.48081e+08	-53284.6  
1050.24	4.5967e+08	-105554  
1052.91	4.73002e+08	-59287.6  
1055.57	4.88011e+08	-74495.2  
1058.24	5.0445e+08	-104272  
1060.91	5.20406e+08	-108750  
1063.57	5.3464e+08	-130048  
1066.23	5.45226e+08	-117798  
1068.89	5.50076e+08	-176221  
1071.55	5.48666e+08	-122676  
1074.21	5.40984e+08	-121139  
1076.86	5.28175e+08	-119735  
1079.51	5.12637e+08	-130320  
1082.17	4.96464e+08	-102358  
1084.82	4.81222e+08	-124329  
1087.47	4.67461e+08	-88745.8  
1090.11	4.55439e+08	-101094  
1092.76	4.45815e+08	-108628  
1095.4	4.38054e+08	-63933.4  
1098.04	4.31567e+08	-94151.4  
1100.68	4.26042e+08	-66821.8  
1103.32	4.20507e+08	-119816  
1105.96	4.17063e+08	-137912  
1108.6	4.15152e+08	-152453  
1111.23	4.1606e+08	-152401  
1113.86	4.19944e+08	-173843  
1116.49	4.27233e+08	-207048  
1119.12	4.38715e+08	-313751  
1121.75	4.54933e+08	-421788  
1124.38	4.77202e+08	-591641  
1127	5.05382e+08	-814337  
1129.62	5.35624e+08	-985234  
1132.24	5.56531e+08	-1.15373e+06  
1134.86	5.55085e+08	-1.19977e+06  
1137.48	5.27699e+08	-1.10108e+06  
1140.1	4.83545e+08	-817922  
1142.71	4.38667e+08	-521495  
1145.33	4.03719e+08	-320073  
1147.94	3.79811e+08	-232609  
1150.55	3.63108e+08	-161901  
1153.16	3.5071e+08	-66125.8  
1155.76	3.4116e+08	-38216.2  
1158.37	3.3358e+08	19563.4  
1160.97	3.27436e+08	16414  
1163.57	3.22323e+08	51121.2  
1166.17	3.17994e+08	54119.8  
1168.77	3.14345e+08	60726  
1171.37	3.11155e+08	79651.4  
1173.96	3.08495e+08	42316.8  
1176.56	3.05994e+08	101372  
1179.15	3.03821e+08	77238.6  
1181.74	3.01804e+08	89853.6  
1184.33	2.99761e+08	60296.8  
1186.92	2.97609e+08	92237.4  
1189.5	2.95333e+08	71525.6  
1192.09	2.92949e+08	114457  
1194.67	2.90981e+08	112271  
1197.25	2.89267e+08	92515.8  
1199.83	2.87859e+08	119886  
1202.41	2.86627e+08	128899  
1204.98	2.85648e+08	125303  
1207.56	2.84836e+08	115031  
1210.13	2.84284e+08	111377  
1212.7	2.83966e+08	123958  
1215.27	2.83764e+08	124271  
1217.84	2.83441e+08	120002  
1220.41	2.83126e+08	122879  
1222.97	2.82898e+08	134531  
1225.54	2.82557e+08	143074  
1228.1	2.82145e+08	111749  
1230.66	2.81323e+08	104325  
1233.22	2.80269e+08	126829  
1235.77	2.79038e+08	150075  
1238.33	2.78165e+08	107155  
1240.88	2.77752e+08	132878  
1243.44	2.7781e+08	150174  
1245.99	2.77882e+08	134044  
1248.54	2.77906e+08	158671  
1251.08	2.77707e+08	159889  
1253.63	2.77228e+08	156252  
1256.17	2.76494e+08	163026  
1258.72	2.75376e+08	155852  
1261.26	2.73936e+08	161031  
1263.8	2.72904e+08	146955  
1266.33	2.71907e+08	135204  
1268.87	2.7119e+08	162551  
1271.41	2.7065e+08	121243  
1273.94	2.70385e+08	164761  
1276.47	2.70349e+08	158044  
1279	2.70589e+08	137350  
1281.53	2.71147e+08	152111  
1284.06	2.72071e+08	167075  
1286.58	2.73267e+08	172451  
1289.1	2.74668e+08	123389  
1291.63	2.76157e+08	158891  
1294.15	2.77732e+08	140337  
1296.67	2.79559e+08	134456  
1299.18	2.81441e+08	138823  
1301.7	2.83116e+08	167504  
1304.21	2.84657e+08	167028  
1306.73	2.8565e+08	119062  
1309.24	2.86182e+08	150603  
1311.75	2.86091e+08	124642  
1314.25	2.84643e+08	148115  
1316.76	2.82864e+08	128174  
1319.27	2.81159e+08	168409  
1321.77	2.79413e+08	163624  
1324.27	2.78078e+08	149617  
1326.77	2.77017e+08	151589  
1329.27	2.76219e+08	162655  
1331.77	2.75696e+08	184846  
1334.26	2.75355e+08	130923  
1336.75	2.75294e+08	160057  
1339.25	2.75363e+08	189538  
1341.74	2.75726e+08	167011  
1344.23	2.75928e+08	148086  
1346.71	2.761e+08	157870  
1349.2	2.76105e+08	150406  
1351.68	2.75959e+08	180061  
1354.17	2.75596e+08	166524  
1356.65	2.74884e+08	165602  
1359.13	2.74119e+08	154988  
1361.6	2.73375e+08	158386  
1364.08	2.72804e+08	155614  
1366.56	2.72521e+08	165654  
1369.03	2.72163e+08	174748  
1371.5	2.71997e+08	155742  
1373.97	2.71683e+08	157789  
1376.44	2.71372e+08	198928  
1378.91	2.71141e+08	157174  
1381.37	2.71116e+08	170126  
1383.84	2.71128e+08	162818  
1386.3	2.71487e+08	157847  
1388.76	2.71698e+08	135906  
1391.22	2.71885e+08	145406  
1393.68	2.72073e+08	137721  
1396.13	2.72071e+08	170793  
1398.59	2.72001e+08	147332  
1401.04	2.7197e+08	175102  
1403.49	2.71809e+08	171674  
1405.94	2.71867e+08	167968  
1408.39	2.72265e+08	164331  
1410.83	2.7308e+08	175937  
1413.28	2.74231e+08	179255  
1415.72	2.75803e+08	161953  
1418.17	2.77985e+08	170375  
1420.61	2.80828e+08	177445  
1423.04	2.84172e+08	157296  
1425.48	2.87607e+08	153149  
1427.92	2.90283e+08	137286  
1430.35	2.92296e+08	190060  
1432.78	2.93786e+08	130546  
1435.22	2.95149e+08	162684  
1437.65	2.96361e+08	163287  
1440.07	2.97573e+08	158108  
1442.5	2.99198e+08	166576  
1444.92	3.01071e+08	182833  
1447.35	3.03409e+08	145406  
1449.77	3.05412e+08	159883  
1452.19	3.06491e+08	123337  
1454.61	3.06542e+08	166970  
1457.03	3.05701e+08	162812  
1459.44	3.04699e+08	140290  
1461.85	3.03147e+08	158659  
1464.27	3.00848e+08	184834  
1466.68	2.9768e+08	163519  
1469.09	2.93827e+08	152093  
1471.5	2.89961e+08	161379  
1473.9	2.8607e+08	168038  
1476.31	2.82364e+08	158294  
1478.71	2.78575e+08	164981  
1481.11	2.75106e+08	202258  
1483.51	2.71845e+08	160950  
1485.91	2.69154e+08	200280  
1488.31	2.66867e+08	193505  
1490.7	2.64975e+08	182706  
1493.1	2.63304e+08	199897  
1495.49	2.61884e+08	186429  
1497.88	2.6088e+08	202925  
1500.27	2.59976e+08	212918  
1502.66	2.59168e+08	200135  
1505.04	2.58402e+08	181482  
1507.43	2.57775e+08	187433  
1509.81	2.57282e+08	189080  
1512.19	2.56826e+08	166356  
1514.57	2.56447e+08	180061  
1516.95	2.56041e+08	183297  
1519.33	2.55716e+08	190832  
1521.7	2.55381e+08	190982  
1524.08	2.55121e+08	217430  
1526.45	2.54808e+08	178541  
1528.82	2.54692e+08	197484  
1531.19	2.54478e+08	191365  
1533.56	2.54281e+08	188599  
1535.92	2.5411e+08	186766  
1538.29	2.5391e+08	191516  
1540.65	2.5382e+08	222569  
1543.01	2.53518e+08	184040  
1545.37	2.53527e+08	166553  
1547.73	2.53407e+08	183640  
1550.09	2.53437e+08	174371  
1552.44	2.53357e+08	235219  
1554.79	2.53163e+08	190431  
1557.15	2.52989e+08	195802  
1559.5	2.52747e+08	191011  
1561.85	2.525e+08	207135  
1564.19	2.52403e+08	171123  
1566.54	2.52121e+08	183993  
1568.89	2.51943e+08	213834  
1571.23	2.51723e+08	190536  
1573.57	2.51489e+08	209258  
1575.91	2.513e+08	211636  
1578.25	2.51015e+08	193993  
1580.59	2.50957e+08	213150  
1582.92	2.50866e+08	175392  
1585.26	2.50741e+08	206886  
1587.59	2.50596e+08	214420  
1589.92	2.50313e+08	223706  
1592.25	2.5007e+08	202878  
1594.58	2.4987e+08	184539  
1596.9	2.49674e+08	192189  
1599.23	2.49645e+08	175949  
1601.55	2.49636e+08	175728  
1603.87	2.4973e+08	191522  
1606.19	2.49621e+08	159633  
1608.51	2.49322e+08	192490  
1610.83	2.48821e+08	202414  
1613.14	2.48412e+08	177550  
1615.46	2.47969e+08	193146  
1617.77	2.47744e+08	188488  
1620.08	2.4742e+08	188918  
1622.39	2.47273e+08	210900  
1624.7	2.47062e+08	170735  
1627.01	2.46863e+08	186580  
1629.31	2.46911e+08	200216  
1631.61	2.4681e+08	166286  
1633.92	2.46777e+08	204612  
1636.22	2.46691e+08	184591  
1638.52	2.46672e+08	186093  
1640.81	2.46639e+08	206323  
1643.11	2.46555e+08	169696  
1645.4	2.46528e+08	184550  
1647.7	2.46374e+08	181598  
1649.99	2.46244e+08	171651  
1652.28	2.46132e+08	176024  
1654.57	2.45994e+08	182485  
1656.85	2.45992e+08	183292  
1659.14	2.45848e+08	179092  
1661.42	2.45708e+08	165544  
1663.71	2.45559e+08	206961  
1665.99	2.45411e+08	198952  
1668.27	2.45284e+08	213510  
1670.54	2.45048e+08	208058  
1672.82	2.44859e+08	174157  
1675.09	2.4459e+08	186453  
1677.37	2.44393e+08	201631  
1679.64	2.44101e+08	175514  
1681.91	2.43826e+08	150133  
1684.18	2.4353e+08	160840  
1686.45	2.43254e+08	197983  
1688.71	2.43018e+08	182085  
1690.98	2.4276e+08	189962  
1693.24	2.42583e+08	166901  
1695.5	2.42308e+08	181639  
1697.76	2.42113e+08	170381  
1700.02	2.41944e+08	170798  
1702.27	2.4183e+08	176975  
1704.53	2.41725e+08	191307  
1706.78	2.41637e+08	170253  
1709.04	2.41572e+08	174499  
1711.29	2.41619e+08	176552  
1713.54	2.41742e+08	189950  
1715.78	2.41953e+08	187647  
1718.03	2.42105e+08	147709  
1720.27	2.42279e+08	161646  
1722.52	2.42468e+08	169621  
1724.76	2.4271e+08	177149  
1727	2.43035e+08	146543  
1729.24	2.43452e+08	139867  
1731.47	2.43997e+08	129439  
1733.71	2.44832e+08	131741  
1735.94	2.456e+08	171483  
1738.18	2.46513e+08	122421  
1740.41	2.47601e+08	168072  
1742.64	2.48893e+08	118529  
1744.87	2.50239e+08	92556.4  
1747.09	2.51704e+08	92452  
1749.32	2.53244e+08	96819.4  
1751.54	2.54729e+08	89320  
1753.76	2.56141e+08	93229.2  
1755.99	2.57405e+08	100943  
1758.2	2.58247e+08	96430.8  
1760.42	2.58778e+08	80794  
1762.64	2.58787e+08	68544.4  
1764.85	2.58565e+08	67204.6  
1767.07	2.57961e+08	81693  
1769.28	2.57259e+08	88699.4  
1771.49	2.56389e+08	85434  
1773.7	2.55507e+08	102492  
1775.91	2.5452e+08	108245  
1778.11	2.5358e+08	82887.8  
1780.32	2.52703e+08	97329.8  
1782.52	2.51751e+08	121266  
1784.72	2.5085e+08	71763.4  
1786.92	2.49952e+08	109985  
1789.12	2.48879e+08	120982  
1791.32	2.47674e+08	109394  
1793.51	2.46127e+08	112102  
1795.71	2.44501e+08	94180.4  
1797.9	2.42682e+08	100705  
1800.09	2.40894e+08	132681  
1802.28	2.39323e+08	123372  
1804.47	2.37735e+08	141097  
1806.65	2.3638e+08	134026  
1808.84	2.35063e+08	142935  
1811.02	2.33887e+08	151658  
1813.2	2.32817e+08	168728  
1815.38	2.31786e+08	161141  
1817.56	2.30782e+08	160718  
1819.74	2.29893e+08	169029  
1821.92	2.29169e+08	169928  
1824.09	2.28433e+08	168304  
1826.27	2.27873e+08	156490  
1828.44	2.27191e+08	166240  
1830.61	2.26545e+08	141497  
1832.78	2.25945e+08	186215  
1834.94	2.25519e+08	166883  
1837.11	2.25042e+08	163531  
1839.27	2.24689e+08	157128  
1841.44	2.24195e+08	164128  
1843.6	2.23844e+08	145110  
1845.76	2.23547e+08	167098  
1847.92	2.2328e+08	178646  
1850.07	2.23036e+08	154831  
1852.23	2.22726e+08	177816  
1854.38	2.22573e+08	168931  
1856.54	2.22437e+08	166048  
1858.69	2.22365e+08	173159  
1860.84	2.22219e+08	178124  
1862.99	2.2225e+08	174203  
1865.13	2.22089e+08	147946  
1867.28	2.22068e+08	145267  
1869.42	2.22087e+08	153532  
1871.56	2.22082e+08	167278  
1873.71	2.22177e+08	149043  
1875.85	2.22184e+08	159767  
1877.98	2.22283e+08	175937  
1880.12	2.22409e+08	155997  
1882.25	2.22599e+08	132501  
1884.39	2.22767e+08	144629  
1886.52	2.2294e+08	156635  
1888.65	2.23007e+08	166408  
1890.78	2.2326e+08	162887  
1892.91	2.23496e+08	158108  
1895.03	2.23689e+08	137727  
1897.16	2.23887e+08	162278  
1899.28	2.24063e+08	122687  
1901.4	2.24171e+08	136625  
1903.53	2.24348e+08	155718  
1905.64	2.24491e+08	165758  
1907.76	2.24654e+08	129137  
1909.88	2.24687e+08	184800  
1911.99	2.24732e+08	144907  
1914.11	2.24957e+08	155823  
1916.22	2.25033e+08	140441  
1918.33	2.25008e+08	130581  
1920.44	2.25102e+08	138023  
1922.54	2.25162e+08	135819  
1924.65	2.25163e+08	144640  
1926.75	2.25184e+08	113390  
1928.86	2.25389e+08	131173  
1930.96	2.25559e+08	156960  
1933.06	2.25897e+08	132791  
1935.16	2.26086e+08	122948  
1937.25	2.26357e+08	136915  
1939.35	2.26569e+08	110084  
1941.44	2.26911e+08	101106  
1943.54	2.27159e+08	121754  
1945.63	2.2753e+08	116847  
1947.72	2.27858e+08	123621  
1949.81	2.28073e+08	102793  
1951.89	2.28349e+08	120512  
1953.98	2.28487e+08	83235.8  
1956.06	2.28503e+08	90253.8  
1958.15	2.28548e+08	93658.4  
1960.23	2.28357e+08	86530.2  
1962.31	2.28137e+08	73613.6  
1964.39	2.27857e+08	111940  
1966.46	2.27485e+08	74704  
1968.54	2.27056e+08	91895.2  
1970.61	2.26516e+08	106471  
1972.68	2.26011e+08	126620  
1974.76	2.25599e+08	119457  
1976.82	2.2531e+08	99499  
1978.89	2.25056e+08	106627  
1980.96	2.24872e+08	113639  
1983.03	2.2485e+08	79715.2  
1985.09	2.24847e+08	92318.6  
1987.15	2.25042e+08	123557  
1989.21	2.25129e+08	71757.6  
1991.27	2.25528e+08	95839.2  
1993.33	2.25916e+08	83514.2  
1995.39	2.2644e+08	110235  
1997.44	2.26997e+08	89876.8  
1999.5	2.27697e+08	95659.4  
2001.55	2.28458e+08	82864.6  
2003.6	2.29412e+08	90659.8  
2005.65	2.30264e+08	55952.6  
2007.7	2.314e+08	74437.2  
2009.74	2.32475e+08	75324.6  
2011.79	2.33737e+08	76154  
2013.83	2.35112e+08	75504.4  
2015.87	2.36695e+08	68382  
2017.92	2.38537e+08	32851.2  
2019.96	2.40527e+08	-24505  
2021.99	2.43051e+08	-20114.4  
2024.03	2.46217e+08	-20033.2  
2026.06	2.50124e+08	-55894.6  
2028.1	2.55031e+08	-101106  
2030.13	2.6105e+08	-131561  
2032.16	2.68737e+08	-157690  
2034.19	2.78132e+08	-225556  
2036.22	2.898e+08	-295353  
2038.25	3.04115e+08	-332386  
2040.27	3.21532e+08	-403523  
2042.29	3.42536e+08	-509924  
2044.32	3.67398e+08	-648620  
2046.34	3.96781e+08	-779630  
2048.36	4.31455e+08	-938684  
2050.38	4.72361e+08	-1.18209e+06  
2052.39	5.20783e+08	-1.43914e+06  
2054.41	5.78694e+08	-1.72666e+06  
2056.42	6.49759e+08	-2.09428e+06  
2058.43	7.38371e+08	-2.64967e+06  
2060.44	8.50441e+08	-3.34521e+06  
2062.45	9.92452e+08	-4.22087e+06  
2064.46	1.16866e+09	-5.30971e+06  
2066.47	1.38542e+09	-6.64276e+06  
2068.47	1.65324e+09	-8.42197e+06  
2070.48	1.97618e+09	-1.05228e+07  
2072.48	2.3267e+09	-1.28661e+07  
2074.48	2.61912e+09	-1.5e+07  
2076.48	2.74794e+09	-1.58108e+07  
2078.48	2.64914e+09	-1.52737e+07  
2080.47	2.35499e+09	-1.32648e+07  
2082.47	1.97016e+09	-1.06843e+07  
2084.46	1.60625e+09	-8.37751e+06  
2086.46	1.31938e+09	-6.46241e+06  
2088.45	1.11116e+09	-5.06396e+06  
2090.44	9.60744e+08	-4.12925e+06  
2092.42	8.46525e+08	-3.43319e+06  
2094.41	7.56759e+08	-2.88516e+06  
2096.4	6.84784e+08	-2.42369e+06  
2098.38	6.27083e+08	-2.11728e+06  
2100.36	5.806e+08	-1.77242e+06  
2102.34	5.43171e+08	-1.59045e+06  
2104.32	5.13076e+08	-1.45261e+06  
2106.3	4.89608e+08	-1.28521e+06  
2108.28	4.7153e+08	-1.21559e+06  
2110.25	4.58305e+08	-1.17456e+06  
2112.23	4.49475e+08	-1.10942e+06  
2114.2	4.44583e+08	-1.08393e+06  
2116.17	4.43387e+08	-1.05507e+06  
2118.14	4.46032e+08	-1.11056e+06  
2120.11	4.52144e+08	-1.11368e+06  
2122.08	4.62307e+08	-1.16615e+06  
2124.04	4.75889e+08	-1.26166e+06  
2126.01	4.93392e+08	-1.37172e+06  
2127.97	5.14018e+08	-1.50516e+06  
2129.93	5.37602e+08	-1.62569e+06  
2131.89	5.62525e+08	-1.76551e+06  
2133.85	5.86947e+08	-1.92454e+06  
2135.81	6.07817e+08	-2.04647e+06  
2137.76	6.22067e+08	-2.13525e+06  
2139.72	6.26719e+08	-2.22069e+06  
2141.67	6.20783e+08	-2.14874e+06  
2143.62	6.04572e+08	-2.09115e+06  
2145.57	5.81715e+08	-1.92246e+06  
2147.52	5.55146e+08	-1.71587e+06  
2149.47	5.27696e+08	-1.52341e+06  
2151.41	5.0174e+08	-1.37049e+06  
2153.36	4.7867e+08	-1.2032e+06  
2155.3	4.58239e+08	-1.10458e+06  
2157.24	4.40858e+08	-925170  
2159.18	4.25401e+08	-851927  
2161.12	4.12161e+08	-766957  
2163.06	4.00588e+08	-671727  
2164.99	3.90652e+08	-608901  
2166.93	3.8227e+08	-553036  
2168.86	3.7522e+08	-511821  
2170.79	3.69322e+08	-497211  
2172.72	3.64441e+08	-416092  
2174.65	3.60434e+08	-364124  
2176.58	3.5664e+08	-359571  
2178.51	3.54185e+08	-342478  
2180.43	3.52543e+08	-326430  
2182.36	3.51279e+08	-299535  
2184.28	3.50764e+08	-250473  
2186.2	3.50836e+08	-269659  
2188.12	3.5155e+08	-256453  
2190.04	3.52863e+08	-232824  
2191.95	3.54891e+08	-248170  
2193.87	3.57659e+08	-233009  
2195.78	3.60831e+08	-213800  
2197.69	3.64807e+08	-225533  
2199.6	3.69314e+08	-194602  
2201.51	3.74689e+08	-254458  
2203.42	3.80666e+08	-247846  
2205.33	3.87224e+08	-258622  
2207.23	3.94113e+08	-271283  
2209.14	4.01209e+08	-232841  
2211.04	4.08499e+08	-226252  
2212.94	4.15736e+08	-282228  
2214.84	4.22482e+08	-297894  
2216.74	4.28603e+08	-278464  
2218.64	4.34019e+08	-306333  
2220.53	4.38569e+08	-275338  
2222.43	4.42196e+08	-338302  
2224.32	4.4522e+08	-353197  
2226.21	4.47705e+08	-348000  
2228.1	4.49859e+08	-393588  
2229.99	4.52461e+08	-404463  
2231.88	4.56162e+08	-369402  
2233.76	4.60514e+08	-471517  
2235.65	4.65659e+08	-484335  
2237.53	4.71597e+08	-526251  
2239.41	4.78647e+08	-552009  
2241.3	4.86307e+08	-627322  
2243.17	4.94026e+08	-695124  
2245.05	5.01076e+08	-696017  
2246.93	5.06573e+08	-773012  
2248.8	5.09812e+08	-791897  
2250.68	5.10601e+08	-866352  
2252.55	5.08071e+08	-895810  
2254.42	5.02491e+08	-895027  
2256.29	4.9395e+08	-892550  
2258.16	4.82684e+08	-931863  
2260.02	4.68685e+08	-865662  
2261.89	4.52224e+08	-835333  
2263.75	4.34349e+08	-779004  
2265.62	4.15224e+08	-735382  
2267.48	3.95626e+08	-640714  
2269.34	3.76186e+08	-593566  
2271.2	3.57613e+08	-536651  
2273.05	3.39885e+08	-446078  
2274.91	3.2373e+08	-364855  
2276.76	3.09334e+08	-341353  
2278.62	2.96285e+08	-285911  
2280.47	2.84718e+08	-237609  
2282.32	2.74513e+08	-219565  
2284.17	2.65334e+08	-185809  
2286.01	2.57075e+08	-176871  
2287.86	2.49677e+08	-147593  
2289.7	2.42971e+08	-116087  
2291.55	2.36877e+08	-106210  
2293.39	2.31189e+08	-94882.2  
2295.23	2.26102e+08	-78149.2  
2297.07	2.21343e+08	-95178  
2298.91	2.16877e+08	-78387  
2300.74	2.12666e+08	-67848.4  
2302.58	2.08754e+08	-59618.2  
2304.41	2.05123e+08	-53244  
2306.25	2.01709e+08	-31378  
2308.08	1.9846e+08	-60934.8  
2309.91	1.95441e+08	-68161.6  
2311.73	1.92671e+08	-30444.2  
2313.56	1.89962e+08	-62338.4  
2315.39	1.87399e+08	-34788.4  
2317.21	1.84888e+08	-43650.8  
2319.03	1.82508e+08	-38836.8  
2320.86	1.80274e+08	-42258.8  
2322.68	1.78168e+08	-50842.8  
2324.5	1.7612e+08	-20723.4  
2326.31	1.74147e+08	-43500  
2328.13	1.72131e+08	-40953.8  
2329.94	1.70379e+08	-50373  
2331.76	1.68528e+08	-42572  
2333.57	1.66776e+08	-67448.2  
2335.38	1.65127e+08	-41029.2  
2337.19	1.63545e+08	-33025.2  
2339	1.61969e+08	-27700.8  
2340.8	1.60578e+08	-63840.6  
2342.61	1.59135e+08	-60598.4  
2344.41	1.57756e+08	-53638.4  
2346.22	1.56436e+08	-75475.4  
2348.02	1.55153e+08	-59624  
2349.82	1.5392e+08	-57211.2  
2351.61	1.52777e+08	-40484  
2353.41	1.51664e+08	-74889.6  
2355.21	1.50612e+08	-79581.8  
2357	1.49648e+08	-39028.2  
2358.8	1.48699e+08	-71282  
2360.59	1.47736e+08	-82777.6  
2362.38	1.46881e+08	-65395  
2364.17	1.45978e+08	-55888.8  
2365.95	1.45315e+08	-93861.4  
2367.74	1.44602e+08	-90549.6  
2369.53	1.43898e+08	-81165.2  
2371.31	1.4324e+08	-79831.2  
2373.09	1.42586e+08	-97660.4  
2374.87	1.42044e+08	-119625  
2376.65	1.41556e+08	-99725.2  
2378.43	1.41149e+08	-97991  
2380.21	1.40732e+08	-90613.4  
2381.98	1.40217e+08	-128603  
2383.76	1.39883e+08	-120913  
2385.53	1.39564e+08	-112578  
2387.3	1.39319e+08	-125901  
2389.07	1.39108e+08	-113297  
2390.84	1.38862e+08	-147523  
2392.61	1.38615e+08	-133365  
2394.37	1.38465e+08	-136265  
2396.14	1.38343e+08	-160260  
2397.9	1.38255e+08	-143330  
2399.66	1.38134e+08	-168003  
2401.43	1.38027e+08	-133876  
2403.18	1.37998e+08	-141114  
2404.94	1.38008e+08	-162417  
2406.7	1.37994e+08	-162562  
2408.46	1.38052e+08	-170056  
2410.21	1.38042e+08	-172208  
2411.96	1.37965e+08	-178060  
2413.71	1.38004e+08	-172388  
2415.46	1.38033e+08	-189614  
2417.21	1.38025e+08	-183558  
2418.96	1.37971e+08	-201939  
2420.71	1.37981e+08	-210169  
2422.45	1.37987e+08	-204752  
2424.19	1.38064e+08	-216265  
2425.94	1.37965e+08	-231704  
2427.68	1.37907e+08	-218886  
2429.42	1.37847e+08	-232307  
2431.15	1.37812e+08	-206468  
2432.89	1.37709e+08	-223625  
2434.63	1.3756e+08	-215998  
2436.36	1.3747e+08	-230248  
2438.09	1.37324e+08	-213556  
2439.83	1.37143e+08	-210610  
2441.56	1.37011e+08	-218718  
2443.28	1.36812e+08	-222714  
2445.01	1.36619e+08	-240375  
2446.74	1.36258e+08	-197130  
2448.46	1.35957e+08	-219837  
2450.19	1.3567e+08	-212239  
2451.91	1.35423e+08	-229866  
2453.63	1.35108e+08	-220313  
2455.35	1.34751e+08	-240723  
2457.07	1.34323e+08	-234407  
2458.78	1.3398e+08	-224535  
2460.5	1.33647e+08	-227853  
2462.21	1.33255e+08	-234320  
2463.93	1.32686e+08	-202472  
2465.64	1.32156e+08	-220017  
2467.35	1.31646e+08	-233914  
2469.06	1.31223e+08	-193331  
2470.76	1.3078e+08	-210917  
2472.47	1.30229e+08	-231443  
2474.18	1.29734e+08	-202988  
2475.88	1.29149e+08	-219924  
2477.58	1.28472e+08	-192763  
2479.28	1.27856e+08	-192084  
2480.98	1.27261e+08	-215569  
2482.68	1.26641e+08	-172979  
2484.38	1.26014e+08	-207669  
2486.07	1.25369e+08	-211114  
2487.77	1.24733e+08	-178060  
2489.46	1.24089e+08	-185136  
2491.15	1.23393e+08	-192485  
2492.84	1.22753e+08	-174389  
2494.53	1.22104e+08	-160051  
2496.22	1.21369e+08	-175409  
2497.91	1.2056e+08	-205535  
2499.59	1.19803e+08	-166222  
2501.28	1.19e+08	-161327  
2502.96	1.18214e+08	-167214  
2504.64	1.17409e+08	-179034  
2506.32	1.16554e+08	-149512  
2508	1.15723e+08	-163954  
2509.68	1.14828e+08	-177080  
2511.35	1.13945e+08	-162545  
2513.03	1.13058e+08	-168850  
2514.7	1.12044e+08	-156165  
2516.37	1.11068e+08	-153601  
2518.04	1.10156e+08	-130964  
2519.71	1.09113e+08	-147337  
2521.38	1.08128e+08	-133748  
2523.05	1.07155e+08	-133330  
2524.71	1.06105e+08	-149878  
2526.38	1.05017e+08	-124694  
2528.04	1.04011e+08	-129079  
2529.7	1.02986e+08	-115768  
2531.36	1.01971e+08	-133835  
2533.02	1.00922e+08	-112126  
2534.68	9.98233e+07	-111586  
2536.34	9.88264e+07	-130662  
2537.99	9.77731e+07	-113036  
2539.65	9.66854e+07	-125413  
2541.3	9.56069e+07	-116597  
2542.95	9.45764e+07	-104968  
2544.6	9.36595e+07	-96448.2  
2546.25	9.25881e+07	-109945  
2547.9	9.15568e+07	-110270  
2549.54	9.05162e+07	-111099  
2551.19	8.95246e+07	-76531  
